#f[kHz] 	t_1[us]	t_2[us]	fst[ns]
10	48.4	75.00	5000
15	48.1	64.13	2500
20	72.2	82.80	2500
25	58.3	68.10	2500
30	48.6	56.57	2500
35	41.68	48.41	1000
40	36.36	41.90	1000
45	32.28	36.63	1000
48.7	27.76	30.50	500
48.8	27.8	30.44	500
48.9	27.8	30.38	500
49	27.8	30.32	500
49.1	27.84	30.26	500
49.2	27.84	30.18	500
50	47.54	49.06	2500
50.6	28.49	29.25	100
50.7	28.58	29.19	100
50.9	28.13	28.45	50
51	28.21	28.39	50
51.1	28.96	28.9	25
51.2	28.99	28.9	25
51.3	29.1	28.87	50
51.4	29.15	28.79	50
51.5	29.26	28.76	100
51.6	29.31	28.69	100
51.7	29.41	28.64	100
53.2	30.14	27.92	500
53.3	30.15	27.86	500
53.4	30.16	27.82	500
53.5	30.18	27.78	500
53.6	30.18	27.72	500
53.7	30.18	27.68	500
55	47.46	44.46	500
60	44.52	41.02	500
65	41.32	37.88	500
70	38.5	35.18	500
75	36	32.84	500
80	33.82	30.78	500
85	31.86	29	500
90	30.12	27.38	500
95	28.56	25.94	500
100	27.34	24.66	500
